%wavelength nm	Hb02 mm-1/mM	Hb mm-1/mM	H20 1/mm	fat  (mm-1 ) 	cpta (mm-1)/(mg/L)
650	0.11651	0.86186	0.00032	0.00031301	2.67E-03
652	0.11313	0.84975	0.00034883	0.00030159	2.60E-03
654	0.10976	0.8376	0.00037767	0.00029561	2.54E-03
656	0.10713	0.82317	0.00040036	0.00029098	2.49E-03
658	0.10454	0.80864	0.00042068	0.00028464	2.44E-03
660	0.10267	0.79166	0.00043723	0.00027786	2.40E-03
662	0.10087	0.77463	0.00044904	0.00028517	2.37E-03
664	0.099958	0.75677	0.00045953	0.00029665	2.34E-03
666	0.099093	0.73882	0.00046341	0.00030805	2.33E-03
668	0.098703	0.7198	0.00046729	0.00031943	2.32E-03
670	0.09834	0.70052	0.00047162	0.00031388	2.32E-03
672	0.098202	0.67888	0.000476	0.00030245	2.32E-03
674	0.098061	0.65723	0.00048123	0.00028287	2.34E-03
676	0.097889	0.6356	0.00048702	0.00026023	2.35E-03
678	0.097695	0.614	0.00049263	0.00024029	2.37E-03
680	0.097366	0.5927	0.0004979	0.00022144	2.39E-03
682	0.097038	0.57156	0.00050335	0.00020482	2.41E-03
684	0.096709	0.55126	0.00051179	0.00018918	2.43E-03
686	0.09638	0.53123	0.00052023	0.00017642	2.45E-03
688	0.096051	0.51246	0.00053635	0.00016499	2.46E-03
690	0.095754	0.49419	0.00055465	0.00016118	2.46E-03
692	0.095585	0.4779	0.00057365	0.00016118	2.46E-03
694	0.095482	0.46212	0.00059334	0.0001521	2.45E-03
696	0.095606	0.44818	0.00061459	0.00013815	2.43E-03
698	0.095831	0.43488	0.0006413	0.00012741	2.41E-03
700	0.096368	0.42359	0.00066801	0.0001185	2.38E-03
702	0.097002	0.4124	0.00070141	0.00011513	2.34E-03
704	0.097909	0.4015	0.0007352	0.00011513	2.29E-03
706	0.098928	0.3906	0.00077553	0.00010821	2.25E-03
708	0.10023	0.37972	0.00081911	9.68E-05	2.19E-03
710	0.10156	0.36917	0.00087178	9.82E-05	2.14E-03
712	0.10294	0.35941	0.00093872	0.00010841	2.08E-03
714	0.10435	0.35015	0.0010084	0.00012579	2.02E-03
716	0.10582	0.34194	0.0011003	0.00014844	1.96E-03
718	0.10731	0.33394	0.0011921	0.0001714	1.91E-03
720	0.10884	0.32634	0.0012777	0.0001946	1.85E-03
722	0.1104	0.31913	0.0013621	0.00022403	1.80E-03
724	0.11202	0.31263	0.0014746	0.00025865	1.74E-03
726	0.11368	0.30685	0.0016096	0.00029934	1.69E-03
728	0.1154	0.30225	0.0017669	0.00034539	1.63E-03
730	0.11721	0.29878	0.0019821	0.00037378	1.58E-03
732	0.11915	0.29695	0.0021974	0.00038556	1.53E-03
734	0.12124	0.29662	0.0023893	0.00039162	1.48E-03
736	0.1235	0.29835	0.0025813	0.00039196	1.42E-03
738	0.12566	0.30161	0.0026869	0.0004148	1.37E-03
740	0.12768	0.30678	0.0027594	0.00046155	1.32E-03
742	0.12968	0.31324	0.0028082	0.00051868	1.27E-03
744	0.13165	0.32117	0.0028272	0.00058755	1.21E-03
746	0.13366	0.33048	0.0028436	0.00065571	1.16E-03
748	0.13572	0.34125	0.002847	0.00072304	1.11E-03
750	0.13786	0.35173	0.0028503	0.0007764	1.07E-03
752	0.14009	0.36194	0.0028611	0.00081195	1.02E-03
754	0.1425	0.37125	0.0028728	0.00085196	9.78E-04
756	0.14508	0.37977	0.0028735	0.00089801	9.35E-04
758	0.14751	0.38347	0.0028672	0.00092844	8.94E-04
760	0.14981	0.38317	0.0028629	0.00093636	8.56E-04
762	0.15208	0.37845	0.0028626	0.00090243	8.18E-04
764	0.15431	0.37035	0.0028615	0.00080415	7.82E-04
766	0.15656	0.35882	0.0028469	0.00069078	7.50E-04
768	0.15884	0.34487	0.0028323	0.00055263	7.19E-04
770	0.16118	0.32987	0.0028123	0.00042512	6.89E-04
772	0.16356	0.31419	0.0027907	0.00031627	6.60E-04
774	0.16615	0.2977	0.0027704	0.00022549	6.34E-04
776	0.16888	0.28073	0.0027515	0.00016848	6.09E-04
778	0.17143	0.26638	0.0027275	0.00012287	5.85E-04
780	0.17388	0.25347	0.0026862	0.00010003	5.63E-04
782	0.17628	0.24322	0.0026449	7.83E-05	5.41E-04
784	0.17865	0.23431	0.0025978	5.90E-05	5.22E-04
786	0.18102	0.22691	0.0025503	4.56E-05	5.03E-04
788	0.18338	0.22019	0.0025067	4.58E-05	4.84E-04
790	0.18577	0.21447	0.002465	4.61E-05	4.68E-04
792	0.18817	0.20916	0.0024226	4.61E-05	4.52E-04
794	0.19081	0.20448	0.0023792	5.07E-05	4.36E-04
796	0.19354	0.20003	0.002336	6.76E-05	4.22E-04
798	0.19602	0.19656	0.0022939	8.46E-05	4.08E-04
800	0.19843	0.19342	0.0022518	0.00010193	3.95E-04
802	0.20067	0.19105	0.0022289	0.00012179	3.83E-04
804	0.20286	0.1889	0.0022099	0.00014963	3.72E-04
806	0.20536	0.18708	0.0021984	0.0001767	3.60E-04
808	0.20795	0.18535	0.002193	0.00020119	3.50E-04
810	0.21044	0.18404	0.0021932	0.00022637	3.40E-04
812	0.21291	0.18284	0.0022081	0.00025407	3.30E-04
814	0.21502	0.18206	0.002223	0.00028075	3.21E-04
816	0.21706	0.18136	0.0022627	0.00030324	3.12E-04
818	0.2193	0.18078	0.0023025	0.00032724	3.04E-04
820	0.22157	0.18021	0.0023675	0.00035807	2.97E-04
822	0.22394	0.17979	0.0024422	0.00038631	2.89E-04
824	0.22632	0.1794	0.0025603	0.00040154	2.82E-04
826	0.22832	0.1793	0.0027326	0.00041486	2.74E-04
828	0.23026	0.17924	0.0029212	0.00041746	2.68E-04
830	0.23231	0.17917	0.0031921	0.00041662	2.62E-04
832	0.23437	0.1791	0.0034629	0.00039393	2.56E-04
834	0.23671	0.17902	0.0036191	0.00037228	2.50E-04
836	0.23907	0.17894	0.0037608	0.00035808	2.44E-04
838	0.24097	0.17894	0.0038604	0.00034312	2.39E-04
840	0.24284	0.17894	0.003933	0.00032181	2.34E-04
842	0.24461	0.17904	0.0040004	0.00030126	2.29E-04
844	0.24638	0.17914	0.0040571	0.0002883	2.25E-04
846	0.24847	0.17934	0.0041131	0.00027631	2.21E-04
848	0.25056	0.17954	0.0041565	0.00027631	2.17E-04
850	0.25243	0.17987	0.0041999	0.00027631	2.13E-04
852	0.25429	0.18021	0.0042426	0.00027631	2.09E-04
854	0.25589	0.18068	0.0042851	0.00027682	2.05E-04
856	0.2575	0.18116	0.0043369	0.00028795	2.01E-04
858	0.2593	0.18177	0.0043981	0.00030015	1.98E-04
860	0.26111	0.18239	0.0044566	0.00034598	1.95E-04
862	0.26293	0.18318	0.004506	0.00039234	1.91E-04
864	0.26472	0.18399	0.0045555	0.00047248	1.87E-04
866	0.26635	0.18501	0.0046257	0.00055263	1.84E-04
868	0.26794	0.18602	0.0046971	0.00064507	1.81E-04
870	0.26932	0.18696	0.0047756	0.00073752	1.78E-04
872	0.2707	0.1879	0.0048577	0.00088744	1.75E-04
874	0.27201	0.1888	0.0049495	0.0010382	1.72E-04
876	0.27332	0.18977	0.0050566	0.0012784	1.70E-04
878	0.27463	0.19105	0.0051644	0.0015213	1.67E-04
880	0.27593	0.19234	0.0052783	0.0018641	1.64E-04
882	0.27719	0.19365	0.0053922	0.0022118	1.62E-04
884	0.27843	0.19495	0.005497	0.0026797	1.59E-04
886	0.27957	0.19626	0.0056	0.0031556	1.56E-04
888	0.28065	0.19751	0.0057182	0.0036758	1.52E-04
890	0.28153	0.19855	0.0058485	0.0041997	1.51E-04
892	0.2824	0.19958	0.0059722	0.0044651	1.52E-04
894	0.28325	0.20054	0.0060786	0.0047047	1.53E-04
896	0.2841	0.20149	0.006185	0.0047409	1.54E-04
898	0.28495	0.20243	0.0062922	0.0047531	1.53E-04
900	0.28578	0.20332	0.0063994	0.0048954	1.50E-04
902	0.28656	0.20406	0.0065231	0.0050558	1.47E-04
904	0.2873	0.20471	0.0066532	0.0054783	1.44E-04
906	0.28795	0.20514	0.0067955	0.0059422	1.41E-04
908	0.28854	0.20546	0.0069531	0.0066533	1.38E-04
910	0.28903	0.20552	0.0071212	0.0074085	1.37E-04
912	0.28945	0.20546	0.0073413	0.0081308	1.35E-04
914	0.28974	0.20517	0.0075615	0.0088464	1.34E-04
916	0.29	0.20475	0.0078922	0.0094176	1.32E-04
918	0.29018	0.20409	0.0082367	0.0099567	1.30E-04
920	0.29035	0.20325	0.0087093	0.010469	1.29E-04
922	0.29052	0.20209	0.0092633	0.010974	1.28E-04
924	0.29067	0.20073	0.0098433	0.011345	1.26E-04
926	0.29079	0.19904	0.010475	0.011681	1.25E-04
928	0.29086	0.19712	0.01113	0.011631	1.24E-04
930	0.29086	0.19486	0.012188	0.011466	1.22E-04
932	0.29075	0.19243	0.013246	0.010754	1.21E-04
934	0.29049	0.18977	0.014419	0.0098676	1.19E-04
936	0.2902	0.18694	0.015625	0.0086855	1.18E-04
938	0.2899	0.18392	0.017071	0.0074003	1.17E-04
940	0.28959	0.18072	0.018757	0.0062007	1.15E-04
942	0.28928	0.17735	0.02044	0.0050332	1.14E-04
944	0.28891	0.17373	0.022112	0.0041383	1.13E-04
946	0.28846	0.16985	0.023784	0.0033536	1.11E-04
948	0.28794	0.1658	0.026747	0.002785	1.10E-04
950	0.28735	0.1616	0.029785	0.0023107	1.08E-04
952	0.28671	0.1573	0.032953	0.0019588	1.07E-04
954	0.28603	0.15292	0.036186	0.001664	1.06E-04
956	0.28521	0.1485	0.039088	0.0014508	1.05E-04
958	0.28427	0.14406	0.041468	0.0012784	1.05E-04
960	0.28329	0.13961	0.04374	0.001147	1.04E-04
962	0.2823	0.13516	0.045152	0.0010374	1.03E-04
964	0.2813	0.13071	0.046564	0.00095481	1.02E-04
966	0.2803	0.12626	0.047179	0.00088752	1.01E-04
968	0.27929	0.12282	0.047635	0.00083798	1.01E-04
970	0.27827	0.12001	0.048005	0.00079924	9.98E-05
972	0.27723	0.11802	0.048306	0.00077074	9.90E-05
974	0.27617	0.11649	0.048529	0.00074887	9.81E-05
976	0.275	0.1119	0.048549	0.00073944	9.72E-05
978	0.27377	0.1057	0.048569	0.00073861	9.63E-05
980	0.27231	0.099866	0.048205	0.00074986	9.61E-05
982	0.27073	0.094207	0.04784	0.00077001	9.49E-05
984	0.26897	0.089536	0.047304	0.00082366	9.44E-05
986	0.26713	0.085294	0.046702	0.0009036	9.36E-05
988	0.26541	0.081616	0.046001	0.0010205	9.30E-05
990	0.26374	0.078161	0.045176	0.0011684	9.21E-05
992	0.26199	0.074879	0.044345	0.0013415	9.15E-05
994	0.26022	0.07166	0.043489	0.0015369	9.08E-05
996	0.25837	0.068625	0.042632	0.0017444	9.01E-05
998	0.2565	0.065649	0.041663	0.001963	8.94E-05
1000	0.25459	0.062876	0.040679	0.0021817	8.84E-05
